File: films/spectrometro uv1000/20230310_Sample-07_back.txt
"File_221110_221531 - RawData"
"Wavelength nm.";"Abs."
300,00;-1,65318
303,00;-1,19426
306,00;-0,86269
309,00;-0,59528
312,00;-0,40208
315,00;-0,27542
318,00;-0,19302
321,00;-0,13962
324,00;-0,10533
327,00;-0,08170
330,00;-0,06668
333,00;-0,05589
336,00;-0,04843
339,00;-0,04324
342,00;-0,03702
345,00;-0,03407
348,00;-0,03264
351,00;-0,03177
354,00;-0,03017
357,00;-0,03003
360,00;-0,02942
363,00;-0,02863
366,00;-0,02831
369,00;-0,02829
372,00;-0,02831
375,00;-0,02827
378,00;-0,02800
381,00;-0,02783
384,00;-0,02759
387,00;-0,02751
390,00;-0,02696
393,00;-0,02687
396,00;-0,02690
399,00;-0,02678
402,00;-0,02664
405,00;-0,02660
408,00;-0,02641
411,00;-0,02625
414,00;-0,02606
417,00;-0,02586
420,00;-0,02557
423,00;-0,02533
426,00;-0,02533
429,00;-0,02538
432,00;-0,02554
435,00;-0,02577
438,00;-0,02571
441,00;-0,02515
444,00;-0,02472
447,00;-0,02466
450,00;-0,02538
453,00;-0,02527
456,00;-0,02457
459,00;-0,02405
462,00;-0,02458
465,00;-0,02480
468,00;-0,02403
471,00;-0,02373
474,00;-0,02438
477,00;-0,02443
480,00;-0,02351
483,00;-0,02376
486,00;-0,02428
489,00;-0,02313
492,00;-0,02365
495,00;-0,02385
498,00;-0,02281
501,00;-0,02350
504,00;-0,02353
507,00;-0,02269
510,00;-0,02359
513,00;-0,02266
516,00;-0,02307
519,00;-0,02313
522,00;-0,02257
525,00;-0,02341
528,00;-0,02226
531,00;-0,02304
534,00;-0,02232
537,00;-0,02252
540,00;-0,02254
543,00;-0,02217
546,00;-0,02264
549,00;-0,02190
552,00;-0,02263
555,00;-0,02170
558,00;-0,02246
561,00;-0,02151
564,00;-0,02248
567,00;-0,02145
570,00;-0,02242
573,00;-0,02148
576,00;-0,02220
579,00;-0,02162
582,00;-0,02194
585,00;-0,02176
588,00;-0,02156
591,00;-0,02199
594,00;-0,02103
597,00;-0,02208
600,00;-0,02100
603,00;-0,02191
606,00;-0,02116
609,00;-0,02168
612,00;-0,02170
615,00;-0,02112
618,00;-0,02182
621,00;-0,02098
624,00;-0,02177
627,00;-0,02142
630,00;-0,02104
633,00;-0,02179
636,00;-0,02095
639,00;-0,02159
642,00;-0,02159
645,00;-0,02092
648,00;-0,02151
651,00;-0,02075
654,00;-0,02089
657,00;-0,02158
660,00;-0,02075
663,00;-0,02112
666,00;-0,02141
669,00;-0,02066
672,00;-0,02130
675,00;-0,02138
678,00;-0,02057
681,00;-0,02126
684,00;-0,02126
687,00;-0,02074
690,00;-0,02121
693,00;-0,02116
696,00;-0,02051
699,00;-0,02124
702,00;-0,02106
705,00;-0,02057
708,00;-0,02097
711,00;-0,02138
714,00;-0,02055
717,00;-0,02090
720,00;-0,02122
723,00;-0,02081
726,00;-0,02074
729,00;-0,02129
732,00;-0,02122
735,00;-0,02063
738,00;-0,02101
741,00;-0,02138
744,00;-0,02080
747,00;-0,02077
750,00;-0,02124
753,00;-0,02115
756,00;-0,02066
759,00;-0,02101
762,00;-0,02145
765,00;-0,02124
768,00;-0,02061
771,00;-0,02133
774,00;-0,02142
777,00;-0,02097
780,00;-0,02086
783,00;-0,02127
786,00;-0,02147
789,00;-0,02106
792,00;-0,02098
795,00;-0,02141
798,00;-0,02144
801,00;-0,02115
804,00;-0,02106
807,00;-0,02124
810,00;-0,02133
813,00;-0,02116
816,00;-0,02100
819,00;-0,02122
822,00;-0,02147
825,00;-0,02124
828,00;-0,02109
831,00;-0,02115
834,00;-0,02145
837,00;-0,02132
840,00;-0,02106
843,00;-0,02107
846,00;-0,02141
849,00;-0,02153
852,00;-0,02124
855,00;-0,02100
858,00;-0,02126
861,00;-0,02153
864,00;-0,02132
867,00;-0,02113
870,00;-0,02104
873,00;-0,02116
876,00;-0,02145
879,00;-0,02141
882,00;-0,02109
885,00;-0,02110
888,00;-0,02119
891,00;-0,02144
894,00;-0,02141
897,00;-0,02106
900,00;-0,02107
903,00;-0,02138
906,00;-0,02135
909,00;-0,02104
912,00;-0,02122
915,00;-0,02118
918,00;-0,02129
921,00;-0,02142
924,00;-0,02150
927,00;-0,02104
930,00;-0,02116
933,00;-0,02092
936,00;-0,02110
939,00;-0,02139
942,00;-0,02126
945,00;-0,02113
948,00;-0,02083
951,00;-0,02109
954,00;-0,02121
957,00;-0,02129
960,00;-0,02104
963,00;-0,02094
966,00;-0,02097
969,00;-0,02103
972,00;-0,02113
975,00;-0,02126
978,00;-0,02089
981,00;-0,02083
984,00;-0,02049
987,00;-0,02075
990,00;-0,02104
993,00;-0,02118
996,00;-0,02103
999,00;-0,02084
1002,00;-0,02060
1005,00;-0,02060
1008,00;-0,02086
1011,00;-0,02107
1014,00;-0,02084
1017,00;-0,02060
1020,00;-0,02037
1023,00;-0,02026
1026,00;-0,02034
1029,00;-0,02078
1032,00;-0,02081
1035,00;-0,02068
1038,00;-0,02046
1041,00;-0,01996
1044,00;-0,01997
1047,00;-0,02037
1050,00;-0,02072
1053,00;-0,02075
1056,00;-0,02051
1059,00;-0,01997
1062,00;-0,01961
1065,00;-0,01967
1068,00;-0,01991
1071,00;-0,02026
1074,00;-0,02046
1077,00;-0,02008
1080,00;-0,01999
1083,00;-0,01953
1086,00;-0,01959
1089,00;-0,01956
1092,00;-0,01982
1095,00;-0,02010
1098,00;-0,02016
1100,00;-0,02028