File: films/spectrometro uv1000/20230310_Sample-01.txt
"File_221110_214932 - RawData"
"Wavelength nm.","Abs."
300.00,0.04910
303.00,0.00740
306.00,-0.00214
309.00,-0.00377
312.00,-0.00946
315.00,-0.01384
318.00,-0.01462
321.00,-0.01950
324.00,-0.02107
327.00,-0.02176
330.00,-0.02361
333.00,-0.02434
336.00,-0.02446
339.00,-0.02553
342.00,-0.02547
345.00,-0.02585
348.00,-0.02538
351.00,-0.02612
354.00,-0.02542
357.00,-0.02544
360.00,-0.02574
363.00,-0.02560
366.00,-0.02528
369.00,-0.02533
372.00,-0.02518
375.00,-0.02457
378.00,-0.02428
381.00,-0.02487
384.00,-0.02501
387.00,-0.02469
390.00,-0.02411
393.00,-0.02399
396.00,-0.02400
399.00,-0.02396
402.00,-0.02415
405.00,-0.02419
408.00,-0.02414
411.00,-0.02403
414.00,-0.02390
417.00,-0.02399
420.00,-0.02368
423.00,-0.02370
426.00,-0.02348
429.00,-0.02342
432.00,-0.02277
435.00,-0.02251
438.00,-0.02209
441.00,-0.02216
444.00,-0.02257
447.00,-0.02293
450.00,-0.02339
453.00,-0.02267
456.00,-0.02165
459.00,-0.02139
462.00,-0.02219
465.00,-0.02278
468.00,-0.02200
471.00,-0.02095
474.00,-0.02141
477.00,-0.02243
480.00,-0.02188
483.00,-0.02060
486.00,-0.02135
489.00,-0.02187
492.00,-0.02061
495.00,-0.02078
498.00,-0.02179
501.00,-0.02087
504.00,-0.02042
507.00,-0.02155
510.00,-0.02055
513.00,-0.02022
516.00,-0.02136
519.00,-0.02002
522.00,-0.02045
525.00,-0.02100
528.00,-0.01953
531.00,-0.02106
534.00,-0.01999
537.00,-0.01994
540.00,-0.02055
543.00,-0.01900
546.00,-0.02077
549.00,-0.01880
552.00,-0.02034
555.00,-0.01906
558.00,-0.01984
561.00,-0.01949
564.00,-0.01924
567.00,-0.01953
570.00,-0.01901
573.00,-0.01964
576.00,-0.01859
579.00,-0.01974
582.00,-0.01837
585.00,-0.01923
588.00,-0.01869
591.00,-0.01874
594.00,-0.01875
597.00,-0.01820
600.00,-0.01918
603.00,-0.01779
606.00,-0.01964
609.00,-0.01720
612.00,-0.01970
615.00,-0.01718
618.00,-0.01901
621.00,-0.01802
624.00,-0.01794
627.00,-0.01901
630.00,-0.01685
633.00,-0.01950
636.00,-0.01689
639.00,-0.01817
642.00,-0.01843
645.00,-0.01677
648.00,-0.01874
651.00,-0.01659
654.00,-0.01775
657.00,-0.01817
660.00,-0.01646
663.00,-0.01831
666.00,-0.01689
669.00,-0.01688
672.00,-0.01822
675.00,-0.01625
678.00,-0.01736
681.00,-0.01772
684.00,-0.01598
687.00,-0.01778
690.00,-0.01715
693.00,-0.01581
696.00,-0.01767
699.00,-0.01671
702.00,-0.01563
705.00,-0.01755
708.00,-0.01643
711.00,-0.01578
714.00,-0.01747
717.00,-0.01637
720.00,-0.01549
723.00,-0.01735
726.00,-0.01640
729.00,-0.01520
732.00,-0.01677
735.00,-0.01692
738.00,-0.01489
741.00,-0.01636
744.00,-0.01697
747.00,-0.01500
750.00,-0.01529
753.00,-0.01707
756.00,-0.01567
759.00,-0.01450
762.00,-0.01645
765.00,-0.01675
768.00,-0.01439
771.00,-0.01508
774.00,-0.01689
777.00,-0.01558
780.00,-0.01407
783.00,-0.01556
786.00,-0.01682
789.00,-0.01486
792.00,-0.01385
795.00,-0.01601
798.00,-0.01646
801.00,-0.01431
804.00,-0.01401
807.00,-0.01596
810.00,-0.01613
813.00,-0.01387
816.00,-0.01366
819.00,-0.01599
822.00,-0.01613
825.00,-0.01396
828.00,-0.01332
831.00,-0.01540
834.00,-0.01631
837.00,-0.01404
840.00,-0.01286
843.00,-0.01471
846.00,-0.01631
849.00,-0.01486
852.00,-0.01277
855.00,-0.01346
858.00,-0.01567
861.00,-0.01555
864.00,-0.01328
867.00,-0.01254
870.00,-0.01427
873.00,-0.01578
876.00,-0.01462
879.00,-0.01262
882.00,-0.01266
885.00,-0.01501
888.00,-0.01561
891.00,-0.01384
894.00,-0.01219
897.00,-0.01285
900.00,-0.01497
903.00,-0.01546
906.00,-0.01350
909.00,-0.01170
912.00,-0.01280
915.00,-0.01497
918.00,-0.01530
921.00,-0.01349
924.00,-0.01199
927.00,-0.01218
930.00,-0.01434
933.00,-0.01509
936.00,-0.01392
939.00,-0.01215
942.00,-0.01189
945.00,-0.01343
948.00,-0.01480
951.00,-0.01450
954.00,-0.01286
957.00,-0.01166
960.00,-0.01222
963.00,-0.01401
966.00,-0.01486
969.00,-0.01378
972.00,-0.01190
975.00,-0.01144
978.00,-0.01259
981.00,-0.01416
984.00,-0.01428
987.00,-0.01320
990.00,-0.01170
993.00,-0.01135
996.00,-0.01250
999.00,-0.01411
1002.00,-0.01431
1005.00,-0.01300
1008.00,-0.01166
1011.00,-0.01138
1014.00,-0.01212
1017.00,-0.01337
1020.00,-0.01392
1023.00,-0.01332
1026.00,-0.01178
1029.00,-0.01106
1032.00,-0.01152
1035.00,-0.01273
1038.00,-0.01379
1041.00,-0.01343
1044.00,-0.01233
1047.00,-0.01138
1050.00,-0.01125
1053.00,-0.01178
1056.00,-0.01294
1059.00,-0.01332
1062.00,-0.01271
1065.00,-0.01164
1068.00,-0.01073
1071.00,-0.01094
1074.00,-0.01184
1077.00,-0.01257
1080.00,-0.01311
1083.00,-0.01251
1086.00,-0.01157
1089.00,-0.01070
1092.00,-0.01062
1095.00,-0.01125
1098.00,-0.01225
1100.00,-0.01288