File: films/spectrometro uv1000/20230310_Sample-06.txt
"File_221110_221150 - RawData"
"Wavelength nm.","Abs."
300.00,0.01785
303.00,0.05756
306.00,0.03670
309.00,0.02061
312.00,0.01260
315.00,0.00339
318.00,-0.00233
321.00,-0.00650
324.00,-0.01216
327.00,-0.01443
330.00,-0.01749
333.00,-0.01909
336.00,-0.02023
339.00,-0.02187
342.00,-0.02251
345.00,-0.02287
348.00,-0.02341
351.00,-0.02391
354.00,-0.02396
357.00,-0.02399
360.00,-0.02385
363.00,-0.02383
366.00,-0.02406
369.00,-0.02396
372.00,-0.02345
375.00,-0.02353
378.00,-0.02309
381.00,-0.02336
384.00,-0.02341
387.00,-0.02341
390.00,-0.02338
393.00,-0.02312
396.00,-0.02330
399.00,-0.02328
402.00,-0.02309
405.00,-0.02296
408.00,-0.02280
411.00,-0.02275
414.00,-0.02257
417.00,-0.02257
420.00,-0.02245
423.00,-0.02231
426.00,-0.02226
429.00,-0.02223
432.00,-0.02173
435.00,-0.02191
438.00,-0.02182
441.00,-0.02168
444.00,-0.02158
447.00,-0.02141
450.00,-0.02173
453.00,-0.02142
456.00,-0.02119
459.00,-0.02130
462.00,-0.02129
465.00,-0.02097
468.00,-0.02101
471.00,-0.02097
474.00,-0.02086
477.00,-0.02075
480.00,-0.02069
483.00,-0.02072
486.00,-0.02065
489.00,-0.02028
492.00,-0.02022
495.00,-0.02040
498.00,-0.02031
501.00,-0.02008
504.00,-0.02008
507.00,-0.02013
510.00,-0.02000
513.00,-0.01999
516.00,-0.01971
519.00,-0.01955
522.00,-0.01978
525.00,-0.01991
528.00,-0.01955
531.00,-0.01936
534.00,-0.01926
537.00,-0.01950
540.00,-0.01939
543.00,-0.01945
546.00,-0.01894
549.00,-0.01875
552.00,-0.01888
555.00,-0.01910
558.00,-0.01901
561.00,-0.01881
564.00,-0.01849
567.00,-0.01837
570.00,-0.01859
573.00,-0.01875
576.00,-0.01860
579.00,-0.01834
582.00,-0.01802
585.00,-0.01801
588.00,-0.01802
591.00,-0.01840
594.00,-0.01807
597.00,-0.01797
600.00,-0.01764
603.00,-0.01753
606.00,-0.01765
609.00,-0.01788
612.00,-0.01797
615.00,-0.01785
618.00,-0.01747
621.00,-0.01729
624.00,-0.01703
627.00,-0.01727
630.00,-0.01743
633.00,-0.01767
636.00,-0.01738
639.00,-0.01720
642.00,-0.01685
645.00,-0.01653
648.00,-0.01653
651.00,-0.01668
654.00,-0.01698
657.00,-0.01701
660.00,-0.01688
663.00,-0.01648
666.00,-0.01619
669.00,-0.01601
672.00,-0.01604
675.00,-0.01648
678.00,-0.01668
681.00,-0.01678
684.00,-0.01651
687.00,-0.01610
690.00,-0.01575
693.00,-0.01552
696.00,-0.01559
699.00,-0.01579
702.00,-0.01593
705.00,-0.01630
708.00,-0.01613
711.00,-0.01602
714.00,-0.01549
717.00,-0.01526
720.00,-0.01498
723.00,-0.01500
726.00,-0.01520
729.00,-0.01547
732.00,-0.01570
735.00,-0.01582
738.00,-0.01573
741.00,-0.01547
744.00,-0.01485
747.00,-0.01454
750.00,-0.01430
753.00,-0.01445
756.00,-0.01450
759.00,-0.01498
762.00,-0.01526
765.00,-0.01552
768.00,-0.01506
771.00,-0.01508
774.00,-0.01451
777.00,-0.01410
780.00,-0.01364
783.00,-0.01376
786.00,-0.01382
789.00,-0.01401
792.00,-0.01430
795.00,-0.01466
798.00,-0.01483
801.00,-0.01486
804.00,-0.01465
807.00,-0.01422
810.00,-0.01382
813.00,-0.01344
816.00,-0.01315
819.00,-0.01309
822.00,-0.01311
825.00,-0.01352
828.00,-0.01378
831.00,-0.01414
834.00,-0.01427
837.00,-0.01428
840.00,-0.01425
843.00,-0.01392
846.00,-0.01361
849.00,-0.01312
852.00,-0.01254
855.00,-0.01237
858.00,-0.01239
861.00,-0.01262
864.00,-0.01277
867.00,-0.01314
870.00,-0.01343
873.00,-0.01384
876.00,-0.01393
879.00,-0.01392
882.00,-0.01357
885.00,-0.01324
888.00,-0.01276
891.00,-0.01244
894.00,-0.01193
897.00,-0.01178
900.00,-0.01186
903.00,-0.01198
906.00,-0.01202
909.00,-0.01218
912.00,-0.01297
915.00,-0.01332
918.00,-0.01352
921.00,-0.01349
924.00,-0.01350
927.00,-0.01309
930.00,-0.01311
933.00,-0.01239
936.00,-0.01196
939.00,-0.01170
942.00,-0.01131
945.00,-0.01112
948.00,-0.01102
951.00,-0.01120
954.00,-0.01158
957.00,-0.01186
960.00,-0.01221
963.00,-0.01271
966.00,-0.01302
969.00,-0.01314
972.00,-0.01292
975.00,-0.01311
978.00,-0.01266
981.00,-0.01250
984.00,-0.01180
987.00,-0.01132
990.00,-0.01102
993.00,-0.01067
996.00,-0.01056
999.00,-0.01050
1002.00,-0.01062
1005.00,-0.01065
1008.00,-0.01100
1011.00,-0.01146
1014.00,-0.01161
1017.00,-0.01213
1020.00,-0.01225
1023.00,-0.01244
1026.00,-0.01248
1029.00,-0.01251
1032.00,-0.01224
1035.00,-0.01193
1038.00,-0.01169
1041.00,-0.01117
1044.00,-0.01071
1047.00,-0.01042
1050.00,-0.01022
1053.00,-0.00974
1056.00,-0.00955
1059.00,-0.00937
1062.00,-0.00943
1065.00,-0.00983
1068.00,-0.01003
1071.00,-0.01048
1074.00,-0.01086
1077.00,-0.01096
1080.00,-0.01140
1083.00,-0.01158
1086.00,-0.01189
1089.00,-0.01193
1092.00,-0.01181
1095.00,-0.01146
1098.00,-0.01117
1100.00,-0.01112