File: films/spectrometro uv1000/20230310_Sample-09.txt
"File_221110_222318 - RawData"
"Wavelength nm.";"Abs."
300,00;0,08296
303,00;0,05402
306,00;0,03026
309,00;0,02377
312,00;0,01328
315,00;0,00569
318,00;-0,00127
321,00;-0,00467
324,00;-0,00964
327,00;-0,01305
330,00;-0,01564
333,00;-0,01640
336,00;-0,01814
339,00;-0,02049
342,00;-0,01999
345,00;-0,02058
348,00;-0,02211
351,00;-0,02153
354,00;-0,02144
357,00;-0,02278
360,00;-0,02116
363,00;-0,02267
366,00;-0,02174
369,00;-0,02174
372,00;-0,02214
375,00;-0,02087
378,00;-0,02220
381,00;-0,02048
384,00;-0,02237
387,00;-0,02066
390,00;-0,02223
393,00;-0,02045
396,00;-0,02222
399,00;-0,02025
402,00;-0,02214
405,00;-0,02022
408,00;-0,02208
411,00;-0,01987
414,00;-0,02156
417,00;-0,02042
420,00;-0,02051
423,00;-0,02090
426,00;-0,01967
429,00;-0,02139
432,00;-0,01909
435,00;-0,02078
438,00;-0,01994
441,00;-0,01927
444,00;-0,02097
447,00;-0,01866
450,00;-0,02029
453,00;-0,02016
456,00;-0,01851
459,00;-0,02061
462,00;-0,01930
465,00;-0,01852
468,00;-0,02057
471,00;-0,01881
474,00;-0,01840
477,00;-0,02043
480,00;-0,01854
483,00;-0,01819
486,00;-0,02020
489,00;-0,01860
492,00;-0,01765
495,00;-0,01964
498,00;-0,01898
501,00;-0,01735
504,00;-0,01917
507,00;-0,01947
510,00;-0,01736
513,00;-0,01776
516,00;-0,01941
519,00;-0,01823
522,00;-0,01697
525,00;-0,01860
528,00;-0,01909
531,00;-0,01721
534,00;-0,01706
537,00;-0,01888
540,00;-0,01871
543,00;-0,01678
546,00;-0,01672
549,00;-0,01851
552,00;-0,01826
555,00;-0,01648
558,00;-0,01620
561,00;-0,01825
564,00;-0,01834
567,00;-0,01656
570,00;-0,01601
573,00;-0,01723
576,00;-0,01814
579,00;-0,01709
582,00;-0,01550
585,00;-0,01624
588,00;-0,01764
591,00;-0,01773
594,00;-0,01590
597,00;-0,01534
600,00;-0,01634
603,00;-0,01794
606,00;-0,01726
609,00;-0,01559
612,00;-0,01503
615,00;-0,01627
618,00;-0,01746
621,00;-0,01712
624,00;-0,01534
627,00;-0,01465
630,00;-0,01553
633,00;-0,01706
636,00;-0,01703
639,00;-0,01558
642,00;-0,01457
645,00;-0,01471
648,00;-0,01610
651,00;-0,01691
654,00;-0,01633
657,00;-0,01498
660,00;-0,01404
663,00;-0,01460
666,00;-0,01604
669,00;-0,01666
672,00;-0,01578
675,00;-0,01442
678,00;-0,01358
681,00;-0,01416
684,00;-0,01550
687,00;-0,01645
690,00;-0,01582
693,00;-0,01459
696,00;-0,01347
699,00;-0,01346
702,00;-0,01437
705,00;-0,01573
708,00;-0,01595
711,00;-0,01515
714,00;-0,01384
717,00;-0,01300
720,00;-0,01315
723,00;-0,01434
726,00;-0,01537
729,00;-0,01556
732,00;-0,01486
735,00;-0,01347
738,00;-0,01263
741,00;-0,01276
744,00;-0,01361
747,00;-0,01485
750,00;-0,01532
753,00;-0,01500
756,00;-0,01369
759,00;-0,01273
762,00;-0,01239
765,00;-0,01280
768,00;-0,01341
771,00;-0,01468
774,00;-0,01489
777,00;-0,01437
780,00;-0,01340
783,00;-0,01236
786,00;-0,01186
789,00;-0,01199
792,00;-0,01286
795,00;-0,01392
798,00;-0,01440
801,00;-0,01443
804,00;-0,01352
807,00;-0,01237
810,00;-0,01149
813,00;-0,01143
816,00;-0,01195
819,00;-0,01285
822,00;-0,01364
825,00;-0,01418
828,00;-0,01398
831,00;-0,01321
834,00;-0,01218
837,00;-0,01137
840,00;-0,01106
843,00;-0,01137
846,00;-0,01199
849,00;-0,01303
852,00;-0,01343
855,00;-0,01364
858,00;-0,01335
861,00;-0,01251
864,00;-0,01154
867,00;-0,01086
870,00;-0,01060
873,00;-0,01080
876,00;-0,01155
879,00;-0,01236
882,00;-0,01286
885,00;-0,01340
888,00;-0,01306
891,00;-0,01256
894,00;-0,01176
897,00;-0,01082
900,00;-0,01036
903,00;-0,01039
906,00;-0,01065
909,00;-0,01106
912,00;-0,01227
915,00;-0,01299
918,00;-0,01315
921,00;-0,01292
924,00;-0,01237
927,00;-0,01138
930,00;-0,01096
933,00;-0,01013
936,00;-0,00983
939,00;-0,01012
942,00;-0,01057
945,00;-0,01128
948,00;-0,01184
951,00;-0,01251
954,00;-0,01268
957,00;-0,01253
960,00;-0,01198
963,00;-0,01129
966,00;-0,01059
969,00;-0,00989
972,00;-0,00945
975,00;-0,00951
978,00;-0,00984
981,00;-0,01051
984,00;-0,01097
987,00;-0,01161
990,00;-0,01213
993,00;-0,01236
996,00;-0,01225
999,00;-0,01183
1002,00;-0,01117
1005,00;-0,01035
1008,00;-0,00975
1011,00;-0,00940
1014,00;-0,00911
1017,00;-0,00922
1020,00;-0,00964
1023,00;-0,01022
1026,00;-0,01074
1029,00;-0,01143
1032,00;-0,01164
1035,00;-0,01178
1038,00;-0,01187
1041,00;-0,01122
1044,00;-0,01065
1047,00;-0,01009
1050,00;-0,00966
1053,00;-0,00890
1056,00;-0,00861
1059,00;-0,00841
1062,00;-0,00854
1065,00;-0,00897
1068,00;-0,00963
1071,00;-0,01027
1074,00;-0,01082
1077,00;-0,01086
1080,00;-0,01120
1083,00;-0,01108
1086,00;-0,01093
1089,00;-0,01033
1092,00;-0,00984
1095,00;-0,00922
1098,00;-0,00856
1100,00;-0,00850