File: films/spectrometro uv1000/20230310_Sample-08.txt
"File_221110_222036 - RawData"
"Wavelength nm.";"Abs."
300,00;0,01990
303,00;0,02994
306,00;0,00267
309,00;0,00626
312,00;-0,00056
315,00;-0,00569
318,00;-0,00943
321,00;-0,01366
324,00;-0,01683
327,00;-0,01845
330,00;-0,01974
333,00;-0,02141
336,00;-0,02219
339,00;-0,02290
342,00;-0,02373
345,00;-0,02393
348,00;-0,02412
351,00;-0,02458
354,00;-0,02425
357,00;-0,02422
360,00;-0,02422
363,00;-0,02422
366,00;-0,02406
369,00;-0,02394
372,00;-0,02391
375,00;-0,02348
378,00;-0,02345
381,00;-0,02341
384,00;-0,02321
387,00;-0,02354
390,00;-0,02332
393,00;-0,02330
396,00;-0,02347
399,00;-0,02324
402,00;-0,02315
405,00;-0,02286
408,00;-0,02278
411,00;-0,02269
414,00;-0,02255
417,00;-0,02269
420,00;-0,02249
423,00;-0,02248
426,00;-0,02232
429,00;-0,02222
432,00;-0,02196
435,00;-0,02199
438,00;-0,02190
441,00;-0,02180
444,00;-0,02155
447,00;-0,02155
450,00;-0,02171
453,00;-0,02147
456,00;-0,02147
459,00;-0,02122
462,00;-0,02110
465,00;-0,02124
468,00;-0,02090
471,00;-0,02075
474,00;-0,02084
477,00;-0,02081
480,00;-0,02072
483,00;-0,02060
486,00;-0,02057
489,00;-0,02040
492,00;-0,02043
495,00;-0,02017
498,00;-0,02023
501,00;-0,02010
504,00;-0,02017
507,00;-0,02020
510,00;-0,01993
513,00;-0,01997
516,00;-0,01981
519,00;-0,01994
522,00;-0,01973
525,00;-0,01970
528,00;-0,01945
531,00;-0,01939
534,00;-0,01944
537,00;-0,01929
540,00;-0,01912
543,00;-0,01903
546,00;-0,01909
549,00;-0,01874
552,00;-0,01891
555,00;-0,01889
558,00;-0,01877
561,00;-0,01866
564,00;-0,01869
567,00;-0,01845
570,00;-0,01862
573,00;-0,01837
576,00;-0,01842
579,00;-0,01828
582,00;-0,01836
585,00;-0,01813
588,00;-0,01801
591,00;-0,01817
594,00;-0,01765
597,00;-0,01788
600,00;-0,01768
603,00;-0,01784
606,00;-0,01778
609,00;-0,01773
612,00;-0,01762
615,00;-0,01753
618,00;-0,01743
621,00;-0,01755
624,00;-0,01743
627,00;-0,01733
630,00;-0,01717
633,00;-0,01723
636,00;-0,01717
639,00;-0,01709
642,00;-0,01715
645,00;-0,01700
648,00;-0,01671
651,00;-0,01694
654,00;-0,01663
657,00;-0,01662
660,00;-0,01669
663,00;-0,01654
666,00;-0,01649
669,00;-0,01669
672,00;-0,01627
675,00;-0,01665
678,00;-0,01643
681,00;-0,01624
684,00;-0,01634
687,00;-0,01640
690,00;-0,01608
693,00;-0,01599
696,00;-0,01614
699,00;-0,01584
702,00;-0,01561
705,00;-0,01596
708,00;-0,01578
711,00;-0,01569
714,00;-0,01575
717,00;-0,01588
720,00;-0,01563
723,00;-0,01537
726,00;-0,01573
729,00;-0,01569
732,00;-0,01538
735,00;-0,01523
738,00;-0,01540
741,00;-0,01537
744,00;-0,01509
747,00;-0,01508
750,00;-0,01517
753,00;-0,01521
756,00;-0,01483
759,00;-0,01491
762,00;-0,01501
765,00;-0,01515
768,00;-0,01462
771,00;-0,01492
774,00;-0,01482
777,00;-0,01465
780,00;-0,01459
783,00;-0,01457
786,00;-0,01459
789,00;-0,01443
792,00;-0,01433
795,00;-0,01454
798,00;-0,01436
801,00;-0,01434
804,00;-0,01428
807,00;-0,01425
810,00;-0,01430
813,00;-0,01407
816,00;-0,01395
819,00;-0,01410
822,00;-0,01418
825,00;-0,01411
828,00;-0,01395
831,00;-0,01381
834,00;-0,01379
837,00;-0,01382
840,00;-0,01390
843,00;-0,01372
846,00;-0,01381
849,00;-0,01381
852,00;-0,01363
855,00;-0,01357
858,00;-0,01358
861,00;-0,01349
864,00;-0,01360
867,00;-0,01357
870,00;-0,01331
873,00;-0,01323
876,00;-0,01334
879,00;-0,01340
882,00;-0,01321
885,00;-0,01328
888,00;-0,01299
891,00;-0,01312
894,00;-0,01318
897,00;-0,01314
900,00;-0,01308
903,00;-0,01300
906,00;-0,01270
909,00;-0,01262
912,00;-0,01314
915,00;-0,01331
918,00;-0,01306
921,00;-0,01268
924,00;-0,01257
927,00;-0,01251
930,00;-0,01302
933,00;-0,01285
936,00;-0,01271
939,00;-0,01259
942,00;-0,01250
945,00;-0,01250
948,00;-0,01253
951,00;-0,01283
954,00;-0,01277
957,00;-0,01250
960,00;-0,01224
963,00;-0,01221
966,00;-0,01245
969,00;-0,01250
972,00;-0,01241
975,00;-0,01244
978,00;-0,01208
981,00;-0,01218
984,00;-0,01196
987,00;-0,01212
990,00;-0,01228
993,00;-0,01236
996,00;-0,01218
999,00;-0,01215
1002,00;-0,01190
1005,00;-0,01193
1008,00;-0,01212
1011,00;-0,01207
1014,00;-0,01189
1017,00;-0,01180
1020,00;-0,01160
1023,00;-0,01160
1026,00;-0,01164
1029,00;-0,01186
1032,00;-0,01170
1035,00;-0,01160
1038,00;-0,01155
1041,00;-0,01144
1044,00;-0,01146
1047,00;-0,01151
1050,00;-0,01163
1053,00;-0,01144
1056,00;-0,01140
1059,00;-0,01112
1062,00;-0,01089
1065,00;-0,01096
1068,00;-0,01103
1071,00;-0,01117
1074,00;-0,01118
1077,00;-0,01099
1080,00;-0,01112
1083,00;-0,01089
1086,00;-0,01103
1089,00;-0,01080
1092,00;-0,01089
1095,00;-0,01080
1098,00;-0,01080
1100,00;-0,01088