File: films/spectrometro uv1000/20230310_Sample-04.txt
"File_221110_220658 - RawData"
"Wavelength nm.","Abs."
300.00,-0.48444
303.00,-0.20660
306.00,-0.12840
309.00,-0.06889
312.00,-0.03937
315.00,-0.02579
318.00,-0.02042
321.00,-0.02367
324.00,-0.02301
327.00,-0.02022
330.00,-0.02423
333.00,-0.02432
336.00,-0.02139
339.00,-0.02625
342.00,-0.02441
345.00,-0.02321
348.00,-0.02658
351.00,-0.02257
354.00,-0.02586
357.00,-0.02414
360.00,-0.02448
363.00,-0.02534
366.00,-0.02304
369.00,-0.02567
372.00,-0.02216
375.00,-0.02611
378.00,-0.02145
381.00,-0.02577
384.00,-0.02168
387.00,-0.02551
390.00,-0.02222
393.00,-0.02390
396.00,-0.02347
399.00,-0.02226
402.00,-0.02480
405.00,-0.02084
408.00,-0.02553
411.00,-0.02049
414.00,-0.02406
417.00,-0.02274
420.00,-0.02080
423.00,-0.02492
426.00,-0.01970
429.00,-0.02371
432.00,-0.02251
435.00,-0.01959
438.00,-0.02438
441.00,-0.02090
444.00,-0.02014
447.00,-0.02437
450.00,-0.01987
453.00,-0.02098
456.00,-0.02408
459.00,-0.01932
462.00,-0.02032
465.00,-0.02399
468.00,-0.01956
471.00,-0.01932
474.00,-0.02370
477.00,-0.02016
480.00,-0.01828
483.00,-0.02274
486.00,-0.02164
489.00,-0.01736
492.00,-0.02011
495.00,-0.02315
498.00,-0.01891
501.00,-0.01768
504.00,-0.02246
507.00,-0.02199
510.00,-0.01730
513.00,-0.01840
516.00,-0.02251
519.00,-0.02097
522.00,-0.01665
525.00,-0.01860
528.00,-0.02242
531.00,-0.02049
534.00,-0.01624
537.00,-0.01775
540.00,-0.02177
543.00,-0.02113
546.00,-0.01662
549.00,-0.01620
552.00,-0.02060
555.00,-0.02191
558.00,-0.01807
561.00,-0.01540
564.00,-0.01775
567.00,-0.02147
570.00,-0.02055
573.00,-0.01637
576.00,-0.01521
579.00,-0.01854
582.00,-0.02150
585.00,-0.01993
588.00,-0.01585
591.00,-0.01476
594.00,-0.01772
597.00,-0.02106
600.00,-0.01987
603.00,-0.01596
606.00,-0.01425
609.00,-0.01671
612.00,-0.02007
615.00,-0.02051
618.00,-0.01750
621.00,-0.01433
624.00,-0.01462
627.00,-0.01773
630.00,-0.02048
633.00,-0.01968
636.00,-0.01640
639.00,-0.01370
642.00,-0.01457
645.00,-0.01772
648.00,-0.02010
651.00,-0.01941
654.00,-0.01631
657.00,-0.01361
660.00,-0.01364
663.00,-0.01616
666.00,-0.01910
669.00,-0.01990
672.00,-0.01738
675.00,-0.01462
678.00,-0.01277
681.00,-0.01398
684.00,-0.01675
687.00,-0.01935
690.00,-0.01929
693.00,-0.01675
696.00,-0.01373
699.00,-0.01244
702.00,-0.01346
705.00,-0.01630
708.00,-0.01865
711.00,-0.01918
714.00,-0.01724
717.00,-0.01436
720.00,-0.01233
723.00,-0.01245
726.00,-0.01448
729.00,-0.01698
732.00,-0.01862
735.00,-0.01848
738.00,-0.01637
741.00,-0.01364
744.00,-0.01189
747.00,-0.01213
750.00,-0.01382
753.00,-0.01649
756.00,-0.01813
759.00,-0.01826
762.00,-0.01669
765.00,-0.01425
768.00,-0.01184
771.00,-0.01143
774.00,-0.01222
777.00,-0.01431
780.00,-0.01657
783.00,-0.01790
786.00,-0.01773
789.00,-0.01598
792.00,-0.01373
795.00,-0.01190
798.00,-0.01103
801.00,-0.01172
804.00,-0.01341
807.00,-0.01563
810.00,-0.01724
813.00,-0.01750
816.00,-0.01649
819.00,-0.01466
822.00,-0.01254
825.00,-0.01093
828.00,-0.01053
831.00,-0.01152
834.00,-0.01332
837.00,-0.01517
840.00,-0.01675
843.00,-0.01723
846.00,-0.01653
849.00,-0.01479
852.00,-0.01260
855.00,-0.01094
858.00,-0.01022
861.00,-0.01050
864.00,-0.01163
867.00,-0.01338
870.00,-0.01512
873.00,-0.01640
876.00,-0.01678
879.00,-0.01595
882.00,-0.01440
885.00,-0.01276
888.00,-0.01102
891.00,-0.01003
894.00,-0.00981
897.00,-0.01047
900.00,-0.01207
903.00,-0.01381
906.00,-0.01523
909.00,-0.01599
912.00,-0.01651
915.00,-0.01578
918.00,-0.01421
921.00,-0.01231
924.00,-0.01077
927.00,-0.00948
930.00,-0.00952
933.00,-0.00964
936.00,-0.01080
939.00,-0.01248
942.00,-0.01398
945.00,-0.01526
948.00,-0.01576
951.00,-0.01585
954.00,-0.01514
957.00,-0.01378
960.00,-0.01208
963.00,-0.01073
966.00,-0.00969
969.00,-0.00903
972.00,-0.00903
975.00,-0.00998
978.00,-0.01103
981.00,-0.01260
984.00,-0.01372
987.00,-0.01485
990.00,-0.01534
993.00,-0.01537
996.00,-0.01483
999.00,-0.01379
1002.00,-0.01227
1005.00,-0.01071
1008.00,-0.00957
1011.00,-0.00883
1014.00,-0.00845
1017.00,-0.00876
1020.00,-0.00949
1023.00,-0.01071
1026.00,-0.01189
1029.00,-0.01332
1032.00,-0.01428
1035.00,-0.01482
1038.00,-0.01509
1041.00,-0.01445
1044.00,-0.01352
1047.00,-0.01241
1050.00,-0.01117
1053.00,-0.00978
1056.00,-0.00868
1059.00,-0.00792
1062.00,-0.00764
1065.00,-0.00803
1068.00,-0.00882
1071.00,-0.00992
1074.00,-0.01109
1077.00,-0.01193
1080.00,-0.01318
1083.00,-0.01381
1086.00,-0.01437
1089.00,-0.01408
1092.00,-0.01363
1095.00,-0.01274
1098.00,-0.01167
1100.00,-0.01100