File: films/spectrometro uv1000/20230310_Sample-07.txt
"File_221110_221826 - RawData"
"Wavelength nm.","Abs."
300.00,-0.42789
303.00,-0.17418
306.00,-0.11026
309.00,-0.05016
312.00,-0.02426
315.00,-0.01750
318.00,-0.01379
321.00,-0.01457
324.00,-0.01587
327.00,-0.01645
330.00,-0.01830
333.00,-0.01929
336.00,-0.01965
339.00,-0.02118
342.00,-0.02151
345.00,-0.02185
348.00,-0.02203
351.00,-0.02248
354.00,-0.02245
357.00,-0.02258
360.00,-0.02249
363.00,-0.02258
366.00,-0.02251
369.00,-0.02232
372.00,-0.02222
375.00,-0.02197
378.00,-0.02187
381.00,-0.02185
384.00,-0.02197
387.00,-0.02203
390.00,-0.02179
393.00,-0.02164
396.00,-0.02171
399.00,-0.02162
402.00,-0.02151
405.00,-0.02145
408.00,-0.02132
411.00,-0.02121
414.00,-0.02115
417.00,-0.02107
420.00,-0.02087
423.00,-0.02098
426.00,-0.02084
429.00,-0.02077
432.00,-0.02032
435.00,-0.02032
438.00,-0.02034
441.00,-0.02032
444.00,-0.02034
447.00,-0.01997
450.00,-0.02023
453.00,-0.01991
456.00,-0.01987
459.00,-0.01999
462.00,-0.01971
465.00,-0.01955
468.00,-0.01970
471.00,-0.01959
474.00,-0.01930
477.00,-0.01944
480.00,-0.01939
483.00,-0.01910
486.00,-0.01910
489.00,-0.01915
492.00,-0.01894
495.00,-0.01883
498.00,-0.01886
501.00,-0.01875
504.00,-0.01875
507.00,-0.01878
510.00,-0.01845
513.00,-0.01857
516.00,-0.01830
519.00,-0.01837
522.00,-0.01846
525.00,-0.01826
528.00,-0.01826
531.00,-0.01802
534.00,-0.01801
537.00,-0.01801
540.00,-0.01785
543.00,-0.01791
546.00,-0.01756
549.00,-0.01762
552.00,-0.01755
555.00,-0.01753
558.00,-0.01733
561.00,-0.01750
564.00,-0.01720
567.00,-0.01730
570.00,-0.01721
573.00,-0.01723
576.00,-0.01703
579.00,-0.01724
582.00,-0.01694
585.00,-0.01689
588.00,-0.01686
591.00,-0.01680
594.00,-0.01660
597.00,-0.01674
600.00,-0.01662
603.00,-0.01649
606.00,-0.01656
609.00,-0.01636
612.00,-0.01636
615.00,-0.01613
618.00,-0.01611
621.00,-0.01631
624.00,-0.01607
627.00,-0.01622
630.00,-0.01587
633.00,-0.01591
636.00,-0.01585
639.00,-0.01573
642.00,-0.01596
645.00,-0.01566
648.00,-0.01552
651.00,-0.01555
654.00,-0.01544
657.00,-0.01544
660.00,-0.01544
663.00,-0.01529
666.00,-0.01540
669.00,-0.01534
672.00,-0.01514
675.00,-0.01541
678.00,-0.01506
681.00,-0.01501
684.00,-0.01517
687.00,-0.01508
690.00,-0.01485
693.00,-0.01491
696.00,-0.01476
699.00,-0.01468
702.00,-0.01474
705.00,-0.01476
708.00,-0.01433
711.00,-0.01466
714.00,-0.01456
717.00,-0.01437
720.00,-0.01437
723.00,-0.01431
726.00,-0.01422
729.00,-0.01422
732.00,-0.01427
735.00,-0.01421
738.00,-0.01396
741.00,-0.01418
744.00,-0.01407
747.00,-0.01384
750.00,-0.01385
753.00,-0.01408
756.00,-0.01385
759.00,-0.01361
762.00,-0.01381
765.00,-0.01395
768.00,-0.01353
771.00,-0.01363
774.00,-0.01367
777.00,-0.01358
780.00,-0.01340
783.00,-0.01344
786.00,-0.01358
789.00,-0.01344
792.00,-0.01332
795.00,-0.01328
798.00,-0.01341
801.00,-0.01346
804.00,-0.01315
807.00,-0.01294
810.00,-0.01305
813.00,-0.01315
816.00,-0.01306
819.00,-0.01282
822.00,-0.01291
825.00,-0.01291
828.00,-0.01309
831.00,-0.01282
834.00,-0.01265
837.00,-0.01285
840.00,-0.01283
843.00,-0.01262
846.00,-0.01260
849.00,-0.01262
852.00,-0.01265
855.00,-0.01248
858.00,-0.01242
861.00,-0.01239
864.00,-0.01244
867.00,-0.01263
870.00,-0.01239
873.00,-0.01219
876.00,-0.01224
879.00,-0.01239
882.00,-0.01230
885.00,-0.01225
888.00,-0.01201
891.00,-0.01204
894.00,-0.01213
897.00,-0.01204
900.00,-0.01213
903.00,-0.01196
906.00,-0.01176
909.00,-0.01170
912.00,-0.01227
915.00,-0.01225
918.00,-0.01183
921.00,-0.01161
924.00,-0.01172
927.00,-0.01175
930.00,-0.01218
933.00,-0.01164
936.00,-0.01137
939.00,-0.01151
942.00,-0.01170
945.00,-0.01190
948.00,-0.01172
951.00,-0.01164
954.00,-0.01141
957.00,-0.01141
960.00,-0.01155
963.00,-0.01172
966.00,-0.01164
969.00,-0.01131
972.00,-0.01109
975.00,-0.01138
978.00,-0.01140
981.00,-0.01161
984.00,-0.01131
987.00,-0.01108
990.00,-0.01097
993.00,-0.01108
996.00,-0.01123
999.00,-0.01143
1002.00,-0.01138
1005.00,-0.01117
1008.00,-0.01096
1011.00,-0.01088
1014.00,-0.01080
1017.00,-0.01097
1020.00,-0.01099
1023.00,-0.01100
1026.00,-0.01086
1029.00,-0.01071
1032.00,-0.01054
1035.00,-0.01057
1038.00,-0.01096
1041.00,-0.01088
1044.00,-0.01086
1047.00,-0.01073
1050.00,-0.01060
1053.00,-0.01031
1056.00,-0.01042
1059.00,-0.01045
1062.00,-0.01048
1065.00,-0.01056
1068.00,-0.01035
1071.00,-0.01022
1074.00,-0.01015
1077.00,-0.00984
1080.00,-0.01030
1083.00,-0.01038
1086.00,-0.01053
1089.00,-0.01039
1092.00,-0.01013
1095.00,-0.00975
1098.00,-0.00970
1100.00,-0.00993