File: films/spectrometro uv1000/20230310_Sample-02.txt
"File_221110_215921 - RawData"
"Wavelength nm.","Abs."
300.00,0.19911
303.00,0.15887
306.00,0.10924
309.00,0.08351
312.00,0.05763
315.00,0.04005
318.00,0.02611
321.00,0.01479
324.00,0.00624
327.00,-0.00101
330.00,-0.00674
333.00,-0.01108
336.00,-0.01474
339.00,-0.01750
342.00,-0.01926
345.00,-0.02036
348.00,-0.02112
351.00,-0.02220
354.00,-0.02216
357.00,-0.02237
360.00,-0.02240
363.00,-0.02293
366.00,-0.02327
369.00,-0.02362
372.00,-0.02380
375.00,-0.02330
378.00,-0.02206
381.00,-0.02176
384.00,-0.02261
387.00,-0.02354
390.00,-0.02290
393.00,-0.02203
396.00,-0.02258
399.00,-0.02354
402.00,-0.02269
405.00,-0.02159
408.00,-0.02319
411.00,-0.02278
414.00,-0.02109
417.00,-0.02275
420.00,-0.02228
423.00,-0.02071
426.00,-0.02264
429.00,-0.02170
432.00,-0.02090
435.00,-0.02248
438.00,-0.02017
441.00,-0.02228
444.00,-0.02063
447.00,-0.02106
450.00,-0.02153
453.00,-0.02011
456.00,-0.02184
459.00,-0.01976
462.00,-0.02208
465.00,-0.01967
468.00,-0.02193
471.00,-0.01945
474.00,-0.02138
477.00,-0.01932
480.00,-0.02138
483.00,-0.01918
486.00,-0.02122
489.00,-0.01898
492.00,-0.02098
495.00,-0.01900
498.00,-0.02040
501.00,-0.01938
504.00,-0.02003
507.00,-0.01999
510.00,-0.01898
513.00,-0.02048
516.00,-0.01833
519.00,-0.02032
522.00,-0.01881
525.00,-0.01921
528.00,-0.01978
531.00,-0.01814
534.00,-0.02014
537.00,-0.01822
540.00,-0.01863
543.00,-0.01961
546.00,-0.01729
549.00,-0.01936
552.00,-0.01860
555.00,-0.01740
558.00,-0.01962
561.00,-0.01770
564.00,-0.01753
567.00,-0.01942
570.00,-0.01723
573.00,-0.01753
576.00,-0.01932
579.00,-0.01680
582.00,-0.01747
585.00,-0.01910
588.00,-0.01682
591.00,-0.01678
594.00,-0.01866
597.00,-0.01700
600.00,-0.01614
603.00,-0.01877
606.00,-0.01746
609.00,-0.01569
612.00,-0.01770
615.00,-0.01813
618.00,-0.01555
621.00,-0.01643
624.00,-0.01843
627.00,-0.01666
630.00,-0.01500
633.00,-0.01729
636.00,-0.01787
639.00,-0.01534
642.00,-0.01527
645.00,-0.01752
648.00,-0.01678
651.00,-0.01443
654.00,-0.01526
657.00,-0.01753
660.00,-0.01653
663.00,-0.01418
666.00,-0.01521
669.00,-0.01735
672.00,-0.01608
675.00,-0.01418
678.00,-0.01462
681.00,-0.01675
684.00,-0.01639
687.00,-0.01414
690.00,-0.01389
693.00,-0.01598
696.00,-0.01651
699.00,-0.01445
702.00,-0.01314
705.00,-0.01489
708.00,-0.01628
711.00,-0.01538
714.00,-0.01335
717.00,-0.01335
720.00,-0.01520
723.00,-0.01599
726.00,-0.01422
729.00,-0.01271
732.00,-0.01337
735.00,-0.01523
738.00,-0.01543
741.00,-0.01372
744.00,-0.01239
747.00,-0.01312
750.00,-0.01489
753.00,-0.01527
756.00,-0.01346
759.00,-0.01205
762.00,-0.01268
765.00,-0.01437
768.00,-0.01463
771.00,-0.01384
774.00,-0.01207
777.00,-0.01170
780.00,-0.01309
783.00,-0.01457
786.00,-0.01431
789.00,-0.01242
792.00,-0.01143
795.00,-0.01193
798.00,-0.01335
801.00,-0.01428
804.00,-0.01349
807.00,-0.01180
810.00,-0.01088
813.00,-0.01167
816.00,-0.01321
819.00,-0.01367
822.00,-0.01299
825.00,-0.01152
828.00,-0.01071
831.00,-0.01123
834.00,-0.01257
837.00,-0.01343
840.00,-0.01303
843.00,-0.01158
846.00,-0.01048
849.00,-0.01054
852.00,-0.01164
855.00,-0.01282
858.00,-0.01305
861.00,-0.01204
864.00,-0.01065
867.00,-0.00989
870.00,-0.01030
873.00,-0.01158
876.00,-0.01268
879.00,-0.01273
882.00,-0.01155
885.00,-0.01022
888.00,-0.00937
891.00,-0.00998
894.00,-0.01123
897.00,-0.01218
900.00,-0.01248
903.00,-0.01169
906.00,-0.01019
909.00,-0.00902
912.00,-0.00940
915.00,-0.01048
918.00,-0.01175
921.00,-0.01234
924.00,-0.01195
927.00,-0.01060
930.00,-0.00961
933.00,-0.00873
936.00,-0.00908
939.00,-0.01035
942.00,-0.01146
945.00,-0.01216
948.00,-0.01161
951.00,-0.01064
954.00,-0.00916
957.00,-0.00844
960.00,-0.00861
963.00,-0.00978
966.00,-0.01109
969.00,-0.01183
972.00,-0.01160
975.00,-0.01079
978.00,-0.00948
981.00,-0.00856
984.00,-0.00806
987.00,-0.00853
990.00,-0.00974
993.00,-0.01100
996.00,-0.01175
999.00,-0.01172
1002.00,-0.01064
1005.00,-0.00906
1008.00,-0.00806
1011.00,-0.00774
1014.00,-0.00807
1017.00,-0.00909
1020.00,-0.01033
1023.00,-0.01132
1026.00,-0.01129
1029.00,-0.01067
1032.00,-0.00943
1035.00,-0.00830
1038.00,-0.00749
1041.00,-0.00717
1044.00,-0.00792
1047.00,-0.00923
1050.00,-0.01054
1053.00,-0.01112
1056.00,-0.01106
1059.00,-0.01009
1062.00,-0.00876
1065.00,-0.00769
1068.00,-0.00699
1071.00,-0.00690
1074.00,-0.00739
1077.00,-0.00815
1080.00,-0.00946
1083.00,-0.01038
1086.00,-0.01088
1089.00,-0.01062
1092.00,-0.00964
1095.00,-0.00827
1098.00,-0.00710
1100.00,-0.00653