File: films/spectrometro uv1000/20230310_Sample-03.txt
"File_221110_220341 - RawData"
"Wavelength nm.","Abs."
300.00,0.04185
303.00,0.05632
306.00,0.02945
309.00,0.02048
312.00,0.01070
315.00,0.00049
318.00,-0.00352
321.00,-0.00935
324.00,-0.01563
327.00,-0.01715
330.00,-0.01961
333.00,-0.02110
336.00,-0.02170
339.00,-0.02403
342.00,-0.02533
345.00,-0.02472
348.00,-0.02460
351.00,-0.02606
354.00,-0.02617
357.00,-0.02545
360.00,-0.02567
363.00,-0.02675
366.00,-0.02547
369.00,-0.02576
372.00,-0.02655
375.00,-0.02504
378.00,-0.02559
381.00,-0.02574
384.00,-0.02493
387.00,-0.02637
390.00,-0.02473
393.00,-0.02582
396.00,-0.02513
399.00,-0.02525
402.00,-0.02542
405.00,-0.02464
408.00,-0.02544
411.00,-0.02423
414.00,-0.02525
417.00,-0.02400
420.00,-0.02490
423.00,-0.02371
426.00,-0.02463
429.00,-0.02357
432.00,-0.02406
435.00,-0.02347
438.00,-0.02370
441.00,-0.02362
444.00,-0.02298
447.00,-0.02370
450.00,-0.02252
453.00,-0.02367
456.00,-0.02235
459.00,-0.02307
462.00,-0.02292
465.00,-0.02200
468.00,-0.02324
471.00,-0.02184
474.00,-0.02217
477.00,-0.02261
480.00,-0.02110
483.00,-0.02245
486.00,-0.02156
489.00,-0.02087
492.00,-0.02238
495.00,-0.02092
498.00,-0.02060
501.00,-0.02194
504.00,-0.02055
507.00,-0.02072
510.00,-0.02185
513.00,-0.02045
516.00,-0.02008
519.00,-0.02170
522.00,-0.02045
525.00,-0.01961
528.00,-0.02138
531.00,-0.02068
534.00,-0.01910
537.00,-0.02074
540.00,-0.02101
543.00,-0.01906
546.00,-0.01926
549.00,-0.02100
552.00,-0.01978
555.00,-0.01834
558.00,-0.01987
561.00,-0.02077
564.00,-0.01874
567.00,-0.01816
570.00,-0.02013
573.00,-0.02034
576.00,-0.01822
579.00,-0.01814
582.00,-0.02005
585.00,-0.02016
588.00,-0.01804
591.00,-0.01782
594.00,-0.01936
597.00,-0.02013
600.00,-0.01816
603.00,-0.01741
606.00,-0.01900
609.00,-0.02011
612.00,-0.01878
615.00,-0.01695
618.00,-0.01775
621.00,-0.01971
624.00,-0.01942
627.00,-0.01761
630.00,-0.01685
633.00,-0.01826
636.00,-0.01962
639.00,-0.01895
642.00,-0.01715
645.00,-0.01677
648.00,-0.01820
651.00,-0.01933
654.00,-0.01863
657.00,-0.01692
660.00,-0.01651
663.00,-0.01779
666.00,-0.01918
669.00,-0.01888
672.00,-0.01680
675.00,-0.01630
678.00,-0.01701
681.00,-0.01857
684.00,-0.01903
687.00,-0.01790
690.00,-0.01614
693.00,-0.01619
696.00,-0.01750
699.00,-0.01852
702.00,-0.01857
705.00,-0.01730
708.00,-0.01598
711.00,-0.01607
714.00,-0.01733
717.00,-0.01855
720.00,-0.01826
723.00,-0.01712
726.00,-0.01601
729.00,-0.01581
732.00,-0.01669
735.00,-0.01797
738.00,-0.01842
741.00,-0.01756
744.00,-0.01628
747.00,-0.01559
750.00,-0.01596
753.00,-0.01707
756.00,-0.01788
759.00,-0.01791
762.00,-0.01717
765.00,-0.01613
768.00,-0.01514
771.00,-0.01598
774.00,-0.01683
777.00,-0.01765
780.00,-0.01773
783.00,-0.01703
786.00,-0.01601
789.00,-0.01526
792.00,-0.01540
795.00,-0.01634
798.00,-0.01717
801.00,-0.01762
804.00,-0.01729
807.00,-0.01643
810.00,-0.01537
813.00,-0.01506
816.00,-0.01541
819.00,-0.01617
822.00,-0.01683
825.00,-0.01724
828.00,-0.01703
831.00,-0.01613
834.00,-0.01546
837.00,-0.01489
840.00,-0.01505
843.00,-0.01579
846.00,-0.01654
849.00,-0.01701
852.00,-0.01675
855.00,-0.01634
858.00,-0.01567
861.00,-0.01497
864.00,-0.01469
867.00,-0.01503
870.00,-0.01553
873.00,-0.01619
876.00,-0.01660
879.00,-0.01651
882.00,-0.01595
885.00,-0.01537
888.00,-0.01477
891.00,-0.01456
894.00,-0.01468
897.00,-0.01506
900.00,-0.01573
903.00,-0.01619
906.00,-0.01620
909.00,-0.01582
912.00,-0.01564
915.00,-0.01518
918.00,-0.01460
921.00,-0.01434
924.00,-0.01457
927.00,-0.01482
930.00,-0.01559
933.00,-0.01567
936.00,-0.01587
939.00,-0.01578
942.00,-0.01535
945.00,-0.01491
948.00,-0.01442
951.00,-0.01430
954.00,-0.01430
957.00,-0.01447
960.00,-0.01485
963.00,-0.01532
966.00,-0.01567
969.00,-0.01553
972.00,-0.01527
975.00,-0.01506
978.00,-0.01456
981.00,-0.01436
984.00,-0.01392
987.00,-0.01393
990.00,-0.01418
993.00,-0.01450
996.00,-0.01483
999.00,-0.01526
1002.00,-0.01535
1005.00,-0.01517
1008.00,-0.01485
1011.00,-0.01465
1014.00,-0.01410
1017.00,-0.01376
1020.00,-0.01363
1023.00,-0.01378
1026.00,-0.01376
1029.00,-0.01404
1032.00,-0.01428
1035.00,-0.01465
1038.00,-0.01479
1041.00,-0.01471
1044.00,-0.01445
1047.00,-0.01430
1050.00,-0.01418
1053.00,-0.01372
1056.00,-0.01332
1059.00,-0.01311
1062.00,-0.01309
1065.00,-0.01340
1068.00,-0.01358
1071.00,-0.01392
1074.00,-0.01408
1077.00,-0.01410
1080.00,-0.01430
1083.00,-0.01401
1086.00,-0.01399
1089.00,-0.01358
1092.00,-0.01332
1095.00,-0.01306
1098.00,-0.01274
1100.00,-0.01282