File: films/spectrometro uv1000/20230310_Sample-05.txt
"File_221110_220917 - RawData"
"Wavelength nm.","Abs."
300.00,0.08766
303.00,0.07350
306.00,0.04930
309.00,0.03363
312.00,0.01868
315.00,0.01373
318.00,0.00066
321.00,-0.00249
324.00,-0.00977
327.00,-0.01411
330.00,-0.01405
333.00,-0.02066
336.00,-0.01735
339.00,-0.02431
342.00,-0.01959
345.00,-0.02608
348.00,-0.02036
351.00,-0.02759
354.00,-0.02126
357.00,-0.02774
360.00,-0.02155
363.00,-0.02768
366.00,-0.02274
369.00,-0.02573
372.00,-0.02437
375.00,-0.02299
378.00,-0.02657
381.00,-0.02077
384.00,-0.02724
387.00,-0.02240
390.00,-0.02330
393.00,-0.02679
396.00,-0.02049
399.00,-0.02605
402.00,-0.02405
405.00,-0.02089
408.00,-0.02715
411.00,-0.02202
414.00,-0.02144
417.00,-0.02681
420.00,-0.02118
423.00,-0.02132
426.00,-0.02652
429.00,-0.02090
432.00,-0.02029
435.00,-0.02611
438.00,-0.02197
441.00,-0.01872
444.00,-0.02431
447.00,-0.02419
450.00,-0.01862
453.00,-0.02185
456.00,-0.02568
459.00,-0.02071
462.00,-0.01825
465.00,-0.02371
468.00,-0.02470
471.00,-0.01871
474.00,-0.01865
477.00,-0.02451
480.00,-0.02345
483.00,-0.01799
486.00,-0.01875
489.00,-0.02370
492.00,-0.02373
495.00,-0.01807
498.00,-0.01732
501.00,-0.02281
504.00,-0.02443
507.00,-0.01959
510.00,-0.01640
513.00,-0.01988
516.00,-0.02422
519.00,-0.02240
522.00,-0.01729
525.00,-0.01672
528.00,-0.02139
531.00,-0.02412
534.00,-0.02069
537.00,-0.01628
540.00,-0.01648
543.00,-0.02106
546.00,-0.02373
549.00,-0.02089
552.00,-0.01619
555.00,-0.01570
558.00,-0.01939
561.00,-0.02310
564.00,-0.02208
567.00,-0.01778
570.00,-0.01479
573.00,-0.01657
576.00,-0.02103
579.00,-0.02301
582.00,-0.02061
585.00,-0.01625
588.00,-0.01427
591.00,-0.01639
594.00,-0.02040
597.00,-0.02264
600.00,-0.02043
603.00,-0.01653
606.00,-0.01387
609.00,-0.01538
612.00,-0.01877
615.00,-0.02180
618.00,-0.02159
621.00,-0.01840
624.00,-0.01466
627.00,-0.01361
630.00,-0.01572
633.00,-0.01926
636.00,-0.02153
639.00,-0.02098
642.00,-0.01781
645.00,-0.01424
648.00,-0.01289
651.00,-0.01439
654.00,-0.01785
657.00,-0.02066
660.00,-0.02107
663.00,-0.01878
666.00,-0.01549
669.00,-0.01292
672.00,-0.01282
675.00,-0.01514
678.00,-0.01831
681.00,-0.02058
684.00,-0.02061
687.00,-0.01845
690.00,-0.01517
693.00,-0.01262
696.00,-0.01201
699.00,-0.01364
702.00,-0.01648
705.00,-0.01933
708.00,-0.02034
711.00,-0.01935
714.00,-0.01665
717.00,-0.01364
720.00,-0.01169
723.00,-0.01164
726.00,-0.01361
729.00,-0.01614
732.00,-0.01852
735.00,-0.01973
738.00,-0.01909
741.00,-0.01685
744.00,-0.01411
747.00,-0.01192
750.00,-0.01091
753.00,-0.01175
756.00,-0.01358
759.00,-0.01619
762.00,-0.01849
765.00,-0.01942
768.00,-0.01831
771.00,-0.01657
774.00,-0.01392
777.00,-0.01167
780.00,-0.01038
783.00,-0.01060
786.00,-0.01218
789.00,-0.01425
792.00,-0.01649
795.00,-0.01828
798.00,-0.01865
801.00,-0.01782
804.00,-0.01575
807.00,-0.01328
810.00,-0.01108
813.00,-0.00992
816.00,-0.00995
819.00,-0.01089
822.00,-0.01276
825.00,-0.01494
828.00,-0.01678
831.00,-0.01790
834.00,-0.01781
837.00,-0.01666
840.00,-0.01488
843.00,-0.01274
846.00,-0.01096
849.00,-0.00969
852.00,-0.00914
855.00,-0.00984
858.00,-0.01134
861.00,-0.01332
864.00,-0.01506
867.00,-0.01649
870.00,-0.01729
873.00,-0.01718
876.00,-0.01617
879.00,-0.01445
882.00,-0.01233
885.00,-0.01067
888.00,-0.00917
891.00,-0.00870
894.00,-0.00887
897.00,-0.00980
900.00,-0.01143
903.00,-0.01334
906.00,-0.01492
909.00,-0.01599
912.00,-0.01714
915.00,-0.01689
918.00,-0.01596
921.00,-0.01428
924.00,-0.01256
927.00,-0.01079
930.00,-0.00957
933.00,-0.00833
936.00,-0.00803
939.00,-0.00854
942.00,-0.00954
945.00,-0.01093
948.00,-0.01239
951.00,-0.01404
954.00,-0.01540
957.00,-0.01610
960.00,-0.01628
963.00,-0.01585
966.00,-0.01492
969.00,-0.01341
972.00,-0.01178
975.00,-0.01042
978.00,-0.00899
981.00,-0.00816
984.00,-0.00746
987.00,-0.00772
990.00,-0.00835
993.00,-0.00952
996.00,-0.01077
999.00,-0.01237
1002.00,-0.01376
1005.00,-0.01472
1008.00,-0.01553
1011.00,-0.01584
1014.00,-0.01541
1017.00,-0.01482
1020.00,-0.01363
1023.00,-0.01222
1026.00,-0.01070
1029.00,-0.00945
1032.00,-0.00813
1035.00,-0.00732
1038.00,-0.00700
1041.00,-0.00690
1044.00,-0.00740
1047.00,-0.00838
1050.00,-0.00961
1053.00,-0.01073
1056.00,-0.01201
1059.00,-0.01302
1062.00,-0.01393
1065.00,-0.01469
1068.00,-0.01497
1071.00,-0.01479
1074.00,-0.01434
1077.00,-0.01320
1080.00,-0.01218
1083.00,-0.01083
1086.00,-0.00977
1089.00,-0.00842
1092.00,-0.00740
1095.00,-0.00658
1098.00,-0.00615
1100.00,-0.00620